Modul 051677, Grating 599507, Detector 773131
      pixel         Wavelength (nm)
      1.00000       181.63719
      2.00000       182.51553
      3.00000       183.39355
      4.00000       184.27127
      5.00000       185.14868
      6.00000       186.02579
      7.00000       186.90259
      8.00000       187.77908
      9.00000       188.65528
      10.0000       189.53117
      11.0000       190.40676
      12.0000       191.28206
      13.0000       192.15705
      14.0000       193.03175
      15.0000       193.90616
      16.0000       194.78027
      17.0000       195.65409
      18.0000       196.52762
      19.0000       197.40085
      20.0000       198.27380
      21.0000       199.14646
      22.0000       200.01884
      23.0000       200.89093
      24.0000       201.76274
      25.0000       202.63426
      26.0000       203.50550
      27.0000       204.37646
      28.0000       205.24715
      29.0000       206.11755
      30.0000       206.98768
      31.0000       207.85753
      32.0000       208.72711
      33.0000       209.59642
      34.0000       210.46545
      35.0000       211.33421
      36.0000       212.20271
      37.0000       213.07093
      38.0000       213.93889
      39.0000       214.80658
      40.0000       215.67401
      41.0000       216.54117
      42.0000       217.40808
      43.0000       218.27472
      44.0000       219.14110
      45.0000       220.00722
      46.0000       220.87308
      47.0000       221.73869
      48.0000       222.60404
      49.0000       223.46913
      50.0000       224.33398
      51.0000       225.19857
      52.0000       226.06291
      53.0000       226.92700
      54.0000       227.79084
      55.0000       228.65444
      56.0000       229.51779
      57.0000       230.38089
      58.0000       231.24375
      59.0000       232.10637
      60.0000       232.96874
      61.0000       233.83088
      62.0000       234.69277
      63.0000       235.55443
      64.0000       236.41584
      65.0000       237.27703
      66.0000       238.13797
      67.0000       238.99869
      68.0000       239.85917
      69.0000       240.71941
      70.0000       241.57943
      71.0000       242.43922
      72.0000       243.29878
      73.0000       244.15811
      74.0000       245.01721
      75.0000       245.87609
      76.0000       246.73475
      77.0000       247.59318
      78.0000       248.45139
      79.0000       249.30938
      80.0000       250.16715
      81.0000       251.02470
      82.0000       251.88203
      83.0000       252.73915
      84.0000       253.59605
      85.0000       254.45273
      86.0000       255.30921
      87.0000       256.16546
      88.0000       257.02151
      89.0000       257.87735
      90.0000       258.73298
      91.0000       259.58840
      92.0000       260.44361
      93.0000       261.29861
      94.0000       262.15341
      95.0000       263.00801
      96.0000       263.86240
      97.0000       264.71659
      98.0000       265.57058
      99.0000       266.42437
      100.000       267.27796
      101.000       268.13135
      102.000       268.98455
      103.000       269.83755
      104.000       270.69035
      105.000       271.54296
      106.000       272.39538
      107.000       273.24760
      108.000       274.09963
      109.000       274.95147
      110.000       275.80313
      111.000       276.65459
      112.000       277.50587
      113.000       278.35696
      114.000       279.20787
      115.000       280.05859
      116.000       280.90913
      117.000       281.75949
      118.000       282.60966
      119.000       283.45966
      120.000       284.30947
      121.000       285.15911
      122.000       286.00857
      123.000       286.85785
      124.000       287.70696
      125.000       288.55589
      126.000       289.40465
      127.000       290.25324
      128.000       291.10165
      129.000       291.94990
      130.000       292.79797
      131.000       293.64587
      132.000       294.49361
      133.000       295.34118
      134.000       296.18858
      135.000       297.03582
      136.000       297.88289
      137.000       298.72980
      138.000       299.57655
      139.000       300.42313
      140.000       301.26956
      141.000       302.11582
      142.000       302.96193
      143.000       303.80788
      144.000       304.65367
      145.000       305.49930
      146.000       306.34478
      147.000       307.19011
      148.000       308.03528
      149.000       308.88029
      150.000       309.72516
      151.000       310.56988
      152.000       311.41444
      153.000       312.25886
      154.000       313.10312
      155.000       313.94724
      156.000       314.79122
      157.000       315.63505
      158.000       316.47873
      159.000       317.32227
      160.000       318.16566
      161.000       319.00892
      162.000       319.85203
      163.000       320.69500
      164.000       321.53783
      165.000       322.38052
      166.000       323.22308
      167.000       324.06550
      168.000       324.90778
      169.000       325.74992
      170.000       326.59193
      171.000       327.43381
      172.000       328.27555
      173.000       329.11716
      174.000       329.95864
      175.000       330.79999
      176.000       331.64121
      177.000       332.48230
      178.000       333.32326
      179.000       334.16410
      180.000       335.00481
      181.000       335.84539
      182.000       336.68584
      183.000       337.52618
      184.000       338.36639
      185.000       339.20647
      186.000       340.04644
      187.000       340.88628
      188.000       341.72600
      189.000       342.56561
      190.000       343.40509
      191.000       344.24446
      192.000       345.08371
      193.000       345.92284
      194.000       346.76186
      195.000       347.60076
      196.000       348.43955
      197.000       349.27823
      198.000       350.11679
      199.000       350.95524
      200.000       351.79358
      201.000       352.63181
      202.000       353.46993
      203.000       354.30794
      204.000       355.14584
      205.000       355.98363
      206.000       356.82132
      207.000       357.65890
      208.000       358.49638
      209.000       359.33375
      210.000       360.17102
      211.000       361.00819
      212.000       361.84525
      213.000       362.68221
      214.000       363.51907
      215.000       364.35583
      216.000       365.19249
      217.000       366.02905
      218.000       366.86551
      219.000       367.70188
      220.000       368.53815
      221.000       369.37432
      222.000       370.21040
      223.000       371.04638
      224.000       371.88227
      225.000       372.71807
      226.000       373.55377
      227.000       374.38938
      228.000       375.22490
      229.000       376.06033
      230.000       376.89567
      231.000       377.73092
      232.000       378.56608
      233.000       379.40115
      234.000       380.23614
      235.000       381.07103
      236.000       381.90585
      237.000       382.74058
      238.000       383.57522
      239.000       384.40978
      240.000       385.24425
      241.000       386.07865
      242.000       386.91296
      243.000       387.74718
      244.000       388.58133
      245.000       389.41540
      246.000       390.24939
      247.000       391.08330
      248.000       391.91713
      249.000       392.75088
      250.000       393.58456
      251.000       394.41816
      252.000       395.25168
      253.000       396.08513
      254.000       396.91850
      255.000       397.75180
      256.000       398.58503
      257.000       399.41818
      258.000       400.25126
      259.000       401.08427
      260.000       401.91721
      261.000       402.75007
      262.000       403.58287
      263.000       404.41560
      264.000       405.24825
      265.000       406.08084
      266.000       406.91337
      267.000       407.74582
      268.000       408.57821
      269.000       409.41053
      270.000       410.24279
      271.000       411.07498
      272.000       411.90711
      273.000       412.73918
      274.000       413.57118
      275.000       414.40312
      276.000       415.23499
      277.000       416.06681
      278.000       416.89856
      279.000       417.73026
      280.000       418.56189
      281.000       419.39346
      282.000       420.22498
      283.000       421.05644
      284.000       421.88784
      285.000       422.71918
      286.000       423.55046
      287.000       424.38169
      288.000       425.21286
      289.000       426.04398
      290.000       426.87504
      291.000       427.70605
      292.000       428.53701
      293.000       429.36791
      294.000       430.19876
      295.000       431.02955
      296.000       431.86030
      297.000       432.69099
      298.000       433.52163
      299.000       434.35223
      300.000       435.18277
      301.000       436.01326
      302.000       436.84371
      303.000       437.67410
      304.000       438.50445
      305.000       439.33475
      306.000       440.16500
      307.000       440.99521
      308.000       441.82537
      309.000       442.65549
      310.000       443.48556
      311.000       444.31558
      312.000       445.14556
      313.000       445.97550
      314.000       446.80539
      315.000       447.63525
      316.000       448.46505
      317.000       449.29482
      318.000       450.12454
      319.000       450.95423
      320.000       451.78387
      321.000       452.61347
      322.000       453.44304
      323.000       454.27256
      324.000       455.10204
      325.000       455.93149
      326.000       456.76090
      327.000       457.59027
      328.000       458.41960
      329.000       459.24889
      330.000       460.07815
      331.000       460.90737
      332.000       461.73656
      333.000       462.56571
      334.000       463.39483
      335.000       464.22391
      336.000       465.05295
      337.000       465.88197
      338.000       466.71095
      339.000       467.53989
      340.000       468.36881
      341.000       469.19769
      342.000       470.02654
      343.000       470.85535
      344.000       471.68414
      345.000       472.51289
      346.000       473.34162
      347.000       474.17031
      348.000       474.99898
      349.000       475.82761
      350.000       476.65622
      351.000       477.48480
      352.000       478.31335
      353.000       479.14187
      354.000       479.97036
      355.000       480.79882
      356.000       481.62726
      357.000       482.45567
      358.000       483.28406
      359.000       484.11242
      360.000       484.94075
      361.000       485.76906
      362.000       486.59734
      363.000       487.42560
      364.000       488.25383
      365.000       489.08204
      366.000       489.91022
      367.000       490.73838
      368.000       491.56652
      369.000       492.39464
      370.000       493.22273
      371.000       494.05080
      372.000       494.87884
      373.000       495.70687
      374.000       496.53487
      375.000       497.36286
      376.000       498.19082
      377.000       499.01876
      378.000       499.84668
      379.000       500.67458
      380.000       501.50246
      381.000       502.33032
      382.000       503.15816
      383.000       503.98598
      384.000       504.81378
      385.000       505.64157
      386.000       506.46933
      387.000       507.29708
      388.000       508.12481
      389.000       508.95252
      390.000       509.78021
      391.000       510.60789
      392.000       511.43555
      393.000       512.26320
      394.000       513.09082
      395.000       513.91843
      396.000       514.74603
      397.000       515.57361
      398.000       516.40117
      399.000       517.22872
      400.000       518.05625
      401.000       518.88377
      402.000       519.71127
      403.000       520.53876
      404.000       521.36624
      405.000       522.19370
      406.000       523.02114
      407.000       523.84858
      408.000       524.67600
      409.000       525.50340
      410.000       526.33079
      411.000       527.15817
      412.000       527.98554
      413.000       528.81289
      414.000       529.64024
      415.000       530.46757
      416.000       531.29488
      417.000       532.12219
      418.000       532.94948
      419.000       533.77676
      420.000       534.60404
      421.000       535.43130
      422.000       536.25854
      423.000       537.08578
      424.000       537.91301
      425.000       538.74022
      426.000       539.56743
      427.000       540.39462
      428.000       541.22181
      429.000       542.04898
      430.000       542.87615
      431.000       543.70330
      432.000       544.53045
      433.000       545.35759
      434.000       546.18471
      435.000       547.01183
      436.000       547.83894
      437.000       548.66604
      438.000       549.49313
      439.000       550.32021
      440.000       551.14728
      441.000       551.97434
      442.000       552.80140
      443.000       553.62844
      444.000       554.45548
      445.000       555.28251
      446.000       556.10954
      447.000       556.93655
      448.000       557.76355
      449.000       558.59055
      450.000       559.41754
      451.000       560.24452
      452.000       561.07150
      453.000       561.89847
      454.000       562.72543
      455.000       563.55238
      456.000       564.37932
      457.000       565.20626
      458.000       566.03319
      459.000       566.86011
      460.000       567.68703
      461.000       568.51394
      462.000       569.34084
      463.000       570.16774
      464.000       570.99462
      465.000       571.82150
      466.000       572.64838
      467.000       573.47524
      468.000       574.30210
      469.000       575.12896
      470.000       575.95581
      471.000       576.78265
      472.000       577.60948
      473.000       578.43631
      474.000       579.26313
      475.000       580.08994
      476.000       580.91675
      477.000       581.74355
      478.000       582.57034
      479.000       583.39713
      480.000       584.22391
      481.000       585.05068
      482.000       585.87745
      483.000       586.70421
      484.000       587.53096
      485.000       588.35771
      486.000       589.18445
      487.000       590.01118
      488.000       590.83791
      489.000       591.66463
      490.000       592.49134
      491.000       593.31805
      492.000       594.14475
      493.000       594.97144
      494.000       595.79813
      495.000       596.62481
      496.000       597.45148
      497.000       598.27815
      498.000       599.10481
      499.000       599.93146
      500.000       600.75810
      501.000       601.58474
      502.000       602.41137
      503.000       603.23799
      504.000       604.06461
      505.000       604.89121
      506.000       605.71781
      507.000       606.54441
      508.000       607.37099
      509.000       608.19757
      510.000       609.02414
      511.000       609.85070
      512.000       610.67725
      513.000       611.50380
      514.000       612.33033
      515.000       613.15686
      516.000       613.98338
      517.000       614.80990
      518.000       615.63640
      519.000       616.46290
      520.000       617.28938
      521.000       618.11586
      522.000       618.94233
      523.000       619.76878
      524.000       620.59524
      525.000       621.42168
      526.000       622.24811
      527.000       623.07453
      528.000       623.90094
      529.000       624.72735
      530.000       625.55374
      531.000       626.38012
      532.000       627.20649
      533.000       628.03285
      534.000       628.85921
      535.000       629.68555
      536.000       630.51187
      537.000       631.33820
      538.000       632.16450
      539.000       632.99080
      540.000       633.81708
      541.000       634.64336
      542.000       635.46962
      543.000       636.29587
      544.000       637.12211
      545.000       637.94833
      546.000       638.77455
      547.000       639.60075
      548.000       640.42694
      549.000       641.25311
      550.000       642.07927
      551.000       642.90542
      552.000       643.73155
      553.000       644.55768
      554.000       645.38379
      555.000       646.20988
      556.000       647.03596
      557.000       647.86202
      558.000       648.68807
      559.000       649.51411
      560.000       650.34013
      561.000       651.16613
      562.000       651.99212
      563.000       652.81809
      564.000       653.64405
      565.000       654.46999
      566.000       655.29591
      567.000       656.12182
      568.000       656.94771
      569.000       657.77358
      570.000       658.59944
      571.000       659.42528
      572.000       660.25110
      573.000       661.07690
      574.000       661.90268
      575.000       662.72845
      576.000       663.55420
      577.000       664.37992
      578.000       665.20563
      579.000       666.03132
      580.000       666.85699
      581.000       667.68264
      582.000       668.50827
      583.000       669.33387
      584.000       670.15946
      585.000       670.98502
      586.000       671.81057
      587.000       672.63608
      588.000       673.46158
      589.000       674.28706
      590.000       675.11251
      591.000       675.93795
      592.000       676.76335
      593.000       677.58874
      594.000       678.41410
      595.000       679.23943
      596.000       680.06474
      597.000       680.89003
      598.000       681.71529
      599.000       682.54053
      600.000       683.36573
      601.000       684.19092
      602.000       685.01608
      603.000       685.84120
      604.000       686.66631
      605.000       687.49139
      606.000       688.31643
      607.000       689.14145
      608.000       689.96645
      609.000       690.79141
      610.000       691.61634
      611.000       692.44124
      612.000       693.26612
      613.000       694.09096
      614.000       694.91578
      615.000       695.74056
      616.000       696.56531
      617.000       697.39003
      618.000       698.21472
      619.000       699.03937
      620.000       699.86400
      621.000       700.68859
      622.000       701.51314
      623.000       702.33767
      624.000       703.16215
      625.000       703.98661
      626.000       704.81102
      627.000       705.63540
      628.000       706.45976
      629.000       707.28407
      630.000       708.10834
      631.000       708.93258
      632.000       709.75678
      633.000       710.58094
      634.000       711.40506
      635.000       712.22915
      636.000       713.05319
      637.000       713.87720
      638.000       714.70117
      639.000       715.52510
      640.000       716.34898
      641.000       717.17282
      642.000       717.99663
